ENVI
description = {
  File Imported into ENVI.}
samples = 344
lines = 480
bands = 260
header offset = 0
file type = ENVI Standard
data type = 12
interleave = bil
sensor type = Unknown
byte order = 0
x start = 0
y start = 0
default bands = {113,68,44}
wavelength units = Nanometers
wavelength = {
366.976,369.394,371.812,374.229,376.647,379.064,381.482,383.900,386.317,388.735,391.153,393.570,395.988,398.406,400.823,403.241,405.658,408.076,410.494,412.911,415.329,417.747,420.164,422.582,425.000,427.417,
429.835,432.253,434.670,437.088,439.505,441.923,444.341,446.758,449.176,451.594,454.011,456.429,458.847,461.264,463.682,466.099,468.517,470.935,473.352,475.770,478.188,480.605,483.023,485.441,487.858,
490.276,492.693,495.111,497.529,499.946,502.364,504.782,507.199,509.617,512.035,514.452,516.870,519.288,521.705,524.123,526.540,528.958,531.376,533.793,536.211,538.629,541.046,543.464,545.882,548.299,
550.717,553.134,555.552,557.970,560.387,562.805,565.223,567.640,570.058,572.476,574.893,577.311,579.728,582.146,584.564,586.981,589.399,591.817,594.234,596.652,599.070,601.487,603.905,606.323,608.740,
611.158,613.575,615.993,618.411,620.828,623.246,625.664,628.081,630.499,632.917,635.334,637.752,640.169,642.587,645.005,647.422,649.840,652.258,654.675,657.093,659.511,661.928,664.346,666.763,669.181,
671.599,674.016,676.434,678.852,681.269,683.687,686.105,688.522,690.940,693.357,695.775,698.193,700.610,703.028,705.446,707.863,710.281,712.699,715.116,717.534,719.952,722.369,724.787,727.204,729.622,
732.040,734.457,736.875,739.293,741.710,744.128,746.546,748.963,751.381,753.798,756.216,758.634,761.051,763.469,765.887,768.304,770.722,773.140,775.557,777.975,780.392,782.810,785.228,787.645,790.063,
792.481,794.898,797.316,799.734,802.151,804.569,806.987,809.404,811.822,814.239,816.657,819.075,821.492,823.910,826.328,828.745,831.163,833.581,835.998,838.416,840.833,843.251,845.669,848.086,850.504,
852.922,855.339,857.757,860.175,862.592,865.010,867.427,869.845,872.263,874.680,877.098,879.516,881.933,884.351,886.769,889.186,891.604,894.022,896.439,898.857,901.274,903.692,906.110,908.527,910.945,
913.363,915.780,918.198,920.616,923.033,925.451,927.868,930.286,932.704,935.121,937.539,939.957,942.374,944.792,947.210,949.627,952.045,954.462,956.880,959.298,961.715,964.133,966.551,968.968,971.386,
973.804,976.221,978.639,981.057,983.474,985.892,988.309,990.727,993.145}